Start Time:  5/5/2017 12:32:22 PM         Time Completed:  5/5/2017 12:33:58 PM     Elapsed Time:  00:01:36
Sample ID:     FORC_desvirgao3

Experiment:    C:\IDEASVSM\Default UserID\Experiments\FORCexp0368B\FORCexp0368B.exp
Data File:     C:\IDEASVSM\Default UserID\CarlosHernandez\FORC_floopy\FORC_desvirgao3 (ProfileData)\FORC_desvirgao3#735.txt
Plot File:     C:\IDEASVSM\Default UserID\CarlosHernandez\FORC_floopy\FORC_desvirgao3 (ProfileData)\FORC_desvirgao3#735.oc2
VSM Exp File:  C:\IDEASVSM\Default UserID\Experiments\FORCexp0368B\FORCexp0368B.stp
VSM Data File: C:\IDEASVSM\Default UserID\CarlosHernandez\FORC_floopy\FORC_desvirgao3 (ProfileData)\FORC_desvirgao3#735.dat

***DATA***

Field(G)	 Moment(emu)	
-2608.61 	-0.00484945 	
-2601.49 	-0.00484191 	
-2591.88 	-0.004834 	
-2581.8 	-0.00488444 	
-2571.81 	-0.00482982 	
-2561.21 	-0.00484379 	
-2551.36 	-0.0048746 	
-2541.56 	-0.0048885 	
-2531.2 	-0.00483419 	
-2521.06 	-0.00488592 	
-2510.92 	-0.00484714 	
-2500.98 	-0.00483205 	
-2490.73 	-0.00483871 	
-2480.71 	-0.00481807 	
-2470.81 	-0.00482729 	
-2460.43 	-0.00481144 	
-2450.45 	-0.00481913 	
-2440.08 	-0.00481763 	
-2430.21 	-0.00483352 	
-2420.42 	-0.00485781 	
-2409.94 	-0.00484571 	
-2399.88 	-0.00481091 	
-2390.1 	-0.00483406 	
-2379.83 	-0.0048393 	
-2369.73 	-0.00480601 	
-2359.74 	-0.00476356 	
-2349.91 	-0.00477191 	
-2339.27 	-0.00475456 	
-2329.28 	-0.00479854 	
-2319.62 	-0.0047961 	
-2309.2 	-0.00476928 	
-2299.24 	-0.00479288 	
-2288.9 	-0.00478888 	
-2278.94 	-0.00474754 	
-2269.17 	-0.00478827 	
-2258.96 	-0.00476146 	
-2248.74 	-0.00471921 	
-2238.76 	-0.00473795 	
-2228.6 	-0.00474499 	
-2218.52 	-0.00477416 	
-2208.57 	-0.00476527 	
-2198.49 	-0.00477605 	
-2188.21 	-0.00478357 	
-2178.29 	-0.00476431 	
-2167.97 	-0.00473245 	
-2158.02 	-0.00476246 	
-2147.9 	-0.00468822 	
-2138.04 	-0.00471678 	
-2128.03 	-0.00470683 	
-2117.5 	-0.00472405 	
-2107.68 	-0.00470985 	
-2097.83 	-0.00468582 	
-2087.3 	-0.00469577 	
-2077.49 	-0.00471593 	
-2067.52 	-0.00472048 	
-2057.1 	-0.00470871 	
-2047.18 	-0.00471625 	
-2037.3 	-0.00466324 	
-2027.32 	-0.00468154 	
-2016.85 	-0.00467915 	
-2006.92 	-0.00469613 	
-1996.72 	-0.00467287 	
-1986.86 	-0.0046751 	
-1976.83 	-0.00466405 	
-1966.44 	-0.00467455 	
-1956.58 	-0.00466575 	
-1946.5 	-0.00467151 	
-1936.28 	-0.00466458 	
-1926.27 	-0.00472101 	
-1916.29 	-0.0046718 	
-1906.21 	-0.00465604 	
-1895.82 	-0.00462873 	
-1886.04 	-0.00461768 	
-1875.99 	-0.00464962 	
-1865.59 	-0.00463453 	
-1855.74 	-0.00466114 	
-1845.39 	-0.00464633 	
-1835.58 	-0.00465224 	
-1825.77 	-0.00462196 	
-1815.2 	-0.00461688 	
-1805.16 	-0.00460549 	
-1795.4 	-0.00460588 	
-1785.27 	-0.00457043 	
-1774.99 	-0.0045981 	
-1765.13 	-0.00456666 	
-1755.14 	-0.00461644 	
-1744.68 	-0.00454939 	
-1734.77 	-0.00457533 	
-1724.83 	-0.00459821 	
-1714.36 	-0.00458309 	
-1704.54 	-0.00456896 	
-1694.25 	-0.00457047 	
-1684.31 	-0.00457433 	
-1674.36 	-0.00453564 	
-1664.17 	-0.00454334 	
-1654.09 	-0.00453047 	
-1644.22 	-0.00453167 	
-1634.18 	-0.00451605 	
-1623.8 	-0.00456953 	
-1613.81 	-0.0045091 	
-1604 	-0.00456152 	
-1593.51 	-0.0045117 	
-1583.67 	-0.00454178 	
-1573.65 	-0.00450056 	
-1563.6 	-0.00449829 	
-1553.26 	-0.00445006 	
-1543.23 	-0.0044798 	
-1533.2 	-0.00449237 	
-1523.24 	-0.00448097 	
-1513.11 	-0.00443284 	
-1502.81 	-0.00444665 	
-1492.97 	-0.00441525 	
-1482.95 	-0.00443437 	
-1472.64 	-0.0044526 	
-1462.67 	-0.00449785 	
-1452.82 	-0.0045209 	
-1442.45 	-0.00445031 	
-1432.36 	-0.00444802 	
-1422.45 	-0.00443598 	
-1412.51 	-0.00443858 	
-1402 	-0.00441307 	
-1392.03 	-0.00444546 	
-1382.01 	-0.00444774 	
-1372.14 	-0.00442527 	
-1362.13 	-0.00442724 	
-1351.73 	-0.00440963 	
-1341.77 	-0.00435538 	
-1331.91 	-0.00440691 	
-1321.62 	-0.00440757 	
-1311.5 	-0.00439253 	
-1301.63 	-0.00436709 	
-1291.48 	-0.00437769 	
-1281.14 	-0.00435555 	
-1271.29 	-0.00433626 	
-1261.41 	-0.00432435 	
-1250.85 	-0.00436592 	
-1241.04 	-0.00438113 	
-1230.79 	-0.00434984 	
-1220.81 	-0.00429227 	
-1210.97 	-0.00433726 	
-1200.51 	-0.0043394 	
-1190.68 	-0.00428278 	
-1180.76 	-0.004361 	
-1170.34 	-0.0043089 	
-1160.31 	-0.00432258 	
-1150.42 	-0.00427459 	
-1140.38 	-0.00428383 	
-1129.94 	-0.00428075 	
-1120.12 	-0.00430177 	
-1110.27 	-0.0042643 	
-1099.81 	-0.00424157 	
-1089.91 	-0.00424744 	
-1079.6 	-0.00422603 	
-1069.63 	-0.00422563 	
-1059.7 	-0.00422991 	
-1049.35 	-0.00420178 	
-1039.52 	-0.00422839 	
-1029.62 	-0.00420219 	
-1019.42 	-0.00420104 	
-1009.15 	-0.00418169 	
-999.383 	-0.0041889 	
-989.238 	-0.00416153 	
-978.922 	-0.00418137 	
-969.001 	-0.00410876 	
-959.114 	-0.0041681 	
-948.853 	-0.00419254 	
-938.75 	-0.00415735 	
-928.406 	-0.00414297 	
-918.976 	-0.00405948 	
-908.32 	-0.00413498 	
-898.389 	-0.00411167 	
-888.327 	-0.00409038 	
-878.358 	-0.00409603 	
-868.388 	-0.00412567 	
-857.921 	-0.00409938 	
-848.1 	-0.00409899 	
-838.178 	-0.00406228 	
-827.787 	-0.00407049 	
-817.811 	-0.00404417 	
-807.996 	-0.00403269 	
-797.543 	-0.00404985 	
-787.591 	-0.00399032 	
-777.46 	-0.004032 	
-767.316 	-0.00397933 	
-757.498 	-0.00395475 	
-747.213 	-0.0039753 	
-737.279 	-0.00401104 	
-727.273 	-0.00401786 	
-717.198 	-0.00393007 	
-706.903 	-0.00392709 	
-696.908 	-0.00397344 	
-687.073 	-0.00391861 	
-676.772 	-0.00397687 	
-666.666 	-0.00392906 	
-656.633 	-0.00391087 	
-646.627 	-0.00390885 	
-636.401 	-0.0038828 	
-626.199 	-0.00389159 	
-616.588 	-0.00388902 	
-606.112 	-0.0038746 	
-596.226 	-0.00385739 	
-585.959 	-0.00387937 	
-573.92 	-0.00391257 	
-562.75 	-0.00386227 	
-552.359 	-0.00381497 	
-542.625 	-0.00377507 	
-532.433 	-0.00381551 	
-522.197 	-0.00382505 	
-512.143 	-0.00381595 	
-502.419 	-0.00375368 	
-491.946 	-0.00373086 	
-481.994 	-0.00373687 	
-471.904 	-0.00379441 	
-461.718 	-0.00378296 	
-451.92 	-0.00369879 	
-441.624 	-0.00369402 	
-431.576 	-0.00367758 	
-421.565 	-0.00370516 	
-411.585 	-0.00372244 	
-401.148 	-0.00369182 	
-391.302 	-0.00362505 	
-381.401 	-0.0037167 	
-371.002 	-0.0036605 	
-361.084 	-0.00365605 	
-351.18 	-0.00361369 	
-340.857 	-0.00366398 	
-330.775 	-0.00359988 	
-320.5 	-0.00358018 	
-310.658 	-0.00359455 	
-300.64 	-0.00358819 	
-290.465 	-0.00363555 	
-280.42 	-0.00359527 	
-270.477 	-0.00352458 	
-260.432 	-0.00346017 	
-249.967 	-0.00347154 	
-240.175 	-0.00350534 	
-230.304 	-0.00351151 	
-217.75 	-0.00344364 	
-206.658 	-0.00347352 	
-196.638 	-0.00350367 	
-186.309 	-0.0034657 	
-176.487 	-0.00342848 	
-166.058 	-0.00342369 	
-156.396 	-0.00334771 	
-145.943 	-0.00336169 	
-135.896 	-0.0033197 	
-125.843 	-0.00333194 	
-116 	-0.00334911 	
-105.99 	-0.0033736 	
-95.5036 	-0.00333357 	
-85.7756 	-0.00329347 	
-75.8486 	-0.00326723 	
-65.5204 	-0.00325568 	
-55.3535 	-0.00322234 	
-45.2587 	-0.00320175 	
-35.7336 	-0.00328612 	
-25.3684 	-0.00323615 	
-15.0525 	-0.00325806 	
-4.86327 	-0.00307648 	
 5.14344 	-0.00307726 	
 15.0593 	-0.00313252 	
 25.2674 	-0.00312465 	
 35.2249 	-0.00312259 	
 45.0578 	-0.00321028 	
 55.3215 	-0.00312525 	
 65.4257 	-0.00302557 	
 75.377 	-0.0030195 	
 85.7556 	-0.00291449 	
 95.3824 	-0.0029933 	
 105.63 	-0.0029496 	
 115.594 	-0.00300064 	
 126.171 	-0.00296222 	
 136.021 	-0.00293071 	
 145.765 	-0.00295346 	
 156.233 	-0.00289525 	
 166.2 	-0.00280852 	
 176.479 	-0.00282909 	
 186.402 	-0.00276385 	
 196.267 	-0.00280981 	
 206.64 	-0.00282307 	
 216.607 	-0.00268386 	
 226.489 	-0.0027779 	
 236.775 	-0.00284749 	
 246.814 	-0.00279546 	
 256.716 	-0.00264705 	
 266.851 	-0.00266474 	
 277.187 	-0.00263556 	
 286.992 	-0.00260424 	
 297.037 	-0.00263892 	
 307.458 	-0.00255844 	
 317.3 	-0.00255872 	
 327.647 	-0.00255942 	
 337.081 	-0.00262661 	

	
	
