Start Time:  5/5/2017 11:41:29 AM         Time Completed:  5/5/2017 11:43:05 AM     Elapsed Time:  00:01:36
Sample ID:     FORC_desvirgao3

Experiment:    C:\IDEASVSM\Default UserID\Experiments\FORCexp0346B\FORCexp0346B.exp
Data File:     C:\IDEASVSM\Default UserID\CarlosHernandez\FORC_floopy\FORC_desvirgao3 (ProfileData)\FORC_desvirgao3#691.txt
Plot File:     C:\IDEASVSM\Default UserID\CarlosHernandez\FORC_floopy\FORC_desvirgao3 (ProfileData)\FORC_desvirgao3#691.oc2
VSM Exp File:  C:\IDEASVSM\Default UserID\Experiments\FORCexp0346B\FORCexp0346B.stp
VSM Data File: C:\IDEASVSM\Default UserID\CarlosHernandez\FORC_floopy\FORC_desvirgao3 (ProfileData)\FORC_desvirgao3#691.dat

***DATA***

Field(G)	 Moment(emu)	
-2386.82 	-0.00478678 	
-2380.51 	-0.00478265 	
-2370.87 	-0.00483943 	
-2360.91 	-0.00480328 	
-2350.77 	-0.00478513 	
-2340.46 	-0.00476409 	
-2330.44 	-0.00479244 	
-2320.19 	-0.00475958 	
-2310.18 	-0.00477897 	
-2300.33 	-0.00481944 	
-2289.83 	-0.00477047 	
-2279.87 	-0.00475992 	
-2269.98 	-0.00474586 	
-2259.69 	-0.00477433 	
-2249.59 	-0.00473826 	
-2239.68 	-0.00478351 	
-2229.68 	-0.00475757 	
-2219.11 	-0.00476468 	
-2209.24 	-0.00475439 	
-2199.57 	-0.00474419 	
-2188.95 	-0.0047533 	
-2179.16 	-0.0047601 	
-2169.03 	-0.00473655 	
-2158.97 	-0.00475321 	
-2148.72 	-0.00472694 	
-2138.33 	-0.0046856 	
-2128.61 	-0.00472683 	
-2118.75 	-0.00473079 	
-2108.47 	-0.00473995 	
-2098.37 	-0.00471956 	
-2088.04 	-0.00467765 	
-2078.43 	-0.00471397 	
-2068.35 	-0.00467413 	
-2058.01 	-0.00469001 	
-2047.81 	-0.0047022 	
-2037.98 	-0.00469462 	
-2028.17 	-0.00469039 	
-2017.53 	-0.00469596 	
-2007.62 	-0.00467619 	
-1997.44 	-0.00466285 	
-1987.5 	-0.00469045 	
-1977.64 	-0.00470759 	
-1967.19 	-0.0046424 	
-1957.33 	-0.0046742 	
-1947.31 	-0.00464447 	
-1937.07 	-0.00466901 	
-1927.01 	-0.00461077 	
-1916.92 	-0.00466197 	
-1907.03 	-0.00459285 	
-1896.68 	-0.00462639 	
-1886.65 	-0.00462035 	
-1876.83 	-0.00460326 	
-1866.21 	-0.00461219 	
-1856.58 	-0.00465734 	
-1846.1 	-0.00464164 	
-1836.41 	-0.00461907 	
-1826.28 	-0.00460891 	
-1815.96 	-0.00462215 	
-1806.03 	-0.00458357 	
-1796.06 	-0.00458247 	
-1785.84 	-0.00458039 	
-1775.74 	-0.00460203 	
-1765.88 	-0.00459787 	
-1755.8 	-0.00460257 	
-1745.38 	-0.00459705 	
-1735.53 	-0.00455851 	
-1725.76 	-0.00455541 	
-1715.31 	-0.00455499 	
-1705.02 	-0.00460436 	
-1695.04 	-0.00457083 	
-1685.04 	-0.0045279 	
-1675.19 	-0.00453058 	
-1664.82 	-0.00458033 	
-1654.76 	-0.00455187 	
-1644.9 	-0.00452073 	
-1634.85 	-0.00454226 	
-1624.45 	-0.00454377 	
-1614.49 	-0.00451157 	
-1604.67 	-0.00453967 	
-1594.1 	-0.00452814 	
-1584.34 	-0.00455016 	
-1571.09 	-0.00444922 	
-1560.69 	-0.00449931 	
-1550.7 	-0.00447805 	
-1540.47 	-0.00448464 	
-1530.52 	-0.00448053 	
-1520.46 	-0.00447504 	
-1510.28 	-0.00445197 	
-1500.42 	-0.00446548 	
-1490.4 	-0.00445782 	
-1480.29 	-0.00443414 	
-1469.91 	-0.00445848 	
-1460.05 	-0.00444712 	
-1450.1 	-0.00445606 	
-1439.59 	-0.00439227 	
-1429.91 	-0.00445069 	
-1419.83 	-0.00440919 	
-1409.46 	-0.00441443 	
-1399.66 	-0.00442243 	
-1389.25 	-0.00439644 	
-1379.57 	-0.00437039 	
-1369.26 	-0.00439902 	
-1359.23 	-0.00436741 	
-1349.11 	-0.004401 	
-1339.15 	-0.00436769 	
-1329.22 	-0.00438779 	
-1318.77 	-0.00434894 	
-1308.96 	-0.00436576 	
-1299 	-0.00437105 	
-1288.48 	-0.00436739 	
-1278.68 	-0.00439098 	
-1268.85 	-0.00438612 	
-1258.53 	-0.00433249 	
-1248.3 	-0.00433757 	
-1238.13 	-0.00435404 	
-1228.44 	-0.0042744 	
-1218.07 	-0.00434258 	
-1208.02 	-0.00433166 	
-1198.12 	-0.00432241 	
-1187.83 	-0.00433266 	
-1177.97 	-0.00428007 	
-1167.93 	-0.00428159 	
-1157.75 	-0.0042837 	
-1147.5 	-0.00433289 	
-1137.73 	-0.00432058 	
-1127.61 	-0.00429102 	
-1117.27 	-0.00423572 	
-1107.23 	-0.00423542 	
-1097.22 	-0.00426216 	
-1087.18 	-0.00421692 	
-1077.27 	-0.00417294 	
-1066.84 	-0.00422678 	
-1057.02 	-0.00417425 	
-1047.06 	-0.00418783 	
-1036.7 	-0.0041621 	
-1026.77 	-0.00418002 	
-1016.79 	-0.00416585 	
-1006.45 	-0.00420502 	
-996.408 	-0.00419673 	
-986.559 	-0.00413704 	
-976.518 	-0.0041123 	
-966.027 	-0.00412734 	
-956.02 	-0.00417956 	
-946.027 	-0.00412067 	
-936.184 	-0.00411065 	
-926.112 	-0.0041499 	
-915.748 	-0.00412104 	
-905.823 	-0.00411605 	
-895.923 	-0.00406397 	
-885.603 	-0.00408984 	
-875.569 	-0.00408993 	
-865.641 	-0.00409152 	
-855.534 	-0.00409543 	
-845.126 	-0.0040295 	
-835.28 	-0.00407189 	
-825.441 	-0.00399332 	
-815.015 	-0.00406607 	
-805.108 	-0.00400148 	
-794.655 	-0.00401211 	
-784.926 	-0.00398294 	
-774.977 	-0.00400473 	
-764.568 	-0.00396564 	
-754.63 	-0.0040164 	
-744.706 	-0.00405317 	
-734.525 	-0.00398196 	
-724.344 	-0.00391806 	
-714.441 	-0.00395378 	
-704.472 	-0.0038935 	
-693.944 	-0.00398963 	
-683.169 	-0.00396036 	
-670.873 	-0.00387895 	
-660.462 	-0.00388217 	
-650.603 	-0.00386982 	
-640.36 	-0.0038783 	
-630.536 	-0.00394363 	
-620.365 	-0.00392856 	
-610.208 	-0.00387213 	
-600.226 	-0.0038298 	
-590.258 	-0.00379152 	
-580.018 	-0.00383018 	
-569.868 	-0.00380144 	
-559.962 	-0.00389423 	
-549.925 	-0.00381271 	
-539.49 	-0.00381818 	
-529.707 	-0.00375998 	
-519.759 	-0.00383199 	
-509.386 	-0.00378451 	
-499.439 	-0.00375757 	
-489.554 	-0.00368364 	
-479.358 	-0.00368464 	
-469.035 	-0.00371958 	
-459.031 	-0.00373595 	
-449.027 	-0.00375008 	
-439.033 	-0.00376028 	
-428.985 	-0.00368704 	
-418.579 	-0.00367003 	
-408.774 	-0.0036589 	
-398.722 	-0.0036676 	
-388.509 	-0.00367003 	
-378.518 	-0.00363644 	
-368.671 	-0.0035689 	
-358.252 	-0.0036026 	
-348.207 	-0.0036022 	
-338.42 	-0.00361654 	
-328.203 	-0.00358978 	
-317.908 	-0.00359793 	
-307.798 	-0.00354432 	
-297.846 	-0.00347514 	
-288.01 	-0.00353503 	
-277.911 	-0.00353349 	
-267.485 	-0.00356233 	
-257.728 	-0.00351752 	
-247.713 	-0.00342102 	
-237.306 	-0.00341141 	
-227.391 	-0.00339187 	
-217.485 	-0.00344219 	
-207.221 	-0.00341826 	
-197.091 	-0.00344723 	
-187.075 	-0.00337399 	
-177.087 	-0.0034155 	
-166.759 	-0.00332898 	
-156.712 	-0.00334662 	
-146.723 	-0.00334692 	
-136.817 	-0.00330689 	
-126.687 	-0.00341201 	
-116.309 	-0.00332773 	
-106.55 	-0.00331764 	
-96.6021 	-0.00327063 	
-86.112 	-0.00325648 	
-76.2571 	-0.00330273 	
-66.3064 	-0.00334828 	
-56.2459 	-0.00317317 	
-45.9623 	-0.0031894 	
-35.9808 	-0.00325636 	
-26.3428 	-0.00319996 	
-15.7551 	-0.00314767 	
-5.60699 	-0.003183 	
 4.82391 	-0.00318191 	
 14.5954 	-0.00316312 	
 24.3315 	-0.00319977 	
 34.7152 	-0.00312044 	
 44.5619 	-0.00311713 	
 54.5768 	-0.00300848 	
 64.7307 	-0.00300168 	
 74.8485 	-0.00300706 	
 85.0348 	-0.00301391 	
 95.0906 	-0.00305621 	
 105.321 	-0.002894 	
 115.394 	-0.00298627 	
 125.183 	-0.00295882 	
 135.541 	-0.00291261 	
 145.47 	-0.00281356 	
 155.435 	-0.00291325 	
 165.457 	-0.00291601 	
 175.688 	-0.00286532 	
 185.733 	-0.00282595 	
 195.579 	-0.00283548 	
 206.041 	-0.00270322 	
 215.936 	-0.00275517 	
 225.852 	-0.0027808 	
 236.194 	-0.00264551 	
 246.255 	-0.00270858 	
 256.443 	-0.0026867 	
 266.003 	-0.0027037 	
 276.585 	-0.00275017 	
 286.482 	-0.00260841 	
 296.702 	-0.00252582 	
 306.431 	-0.00267523 	
 316.53 	-0.00256509 	
 326.963 	-0.00259705 	
 336.848 	-0.00245164 	
 346.663 	-0.00246414 	
 357.082 	-0.002394 	
 367.119 	-0.00243585 	
 377.121 	-0.00240192 	
 387.045 	-0.00235579 	
 397.453 	-0.00238501 	
 407.574 	-0.00229979 	
 417.278 	-0.00230342 	
 427.621 	-0.00222578 	
 437.555 	-0.00216032 	
 447.966 	-0.00222905 	
 457.662 	-0.00217638 	
 467.653 	-0.00218192 	
 477.815 	-0.00215554 	
 488.036 	-0.00206222 	
 497.972 	-0.00204767 	
 508.209 	-0.00202907 	
 518.046 	-0.00198794 	
 528.342 	-0.00195024 	
 538.286 	-0.00186651 	
 548.416 	-0.00173919 	
 558.181 	-0.00177602 	

	
	
